 Ag Density=10.5, Energy=2500.eV
 Grazing Angle (deg), Atten Length (microns)
   2.00000  3.146968E-02
   1.98000  3.091843E-02
   1.96000  3.036295E-02
   1.94000  2.980302E-02
   1.92000  2.923839E-02
   1.90000  2.866879E-02
   1.88000  2.809393E-02
   1.86000  2.751349E-02
   1.84000  2.692714E-02
   1.82000  2.633450E-02
   1.80000  2.573516E-02
   1.78000  2.512866E-02
   1.76000  2.451453E-02
   1.74000  2.389219E-02
   1.72000  2.326105E-02
   1.70000  2.262043E-02
   1.68000  2.196959E-02
   1.66000  2.130767E-02
   1.64000  2.063375E-02
   1.62000  1.994676E-02
   1.60000  1.924551E-02
   1.58000  1.852864E-02
   1.56000  1.779465E-02
   1.54000  1.704180E-02
   1.52000  1.626818E-02
   1.50000  1.547166E-02
   1.48000  1.464993E-02
   1.46000  1.380062E-02
   1.44000  1.292157E-02
   1.42000  1.201139E-02
   1.40000  1.107070E-02
   1.38000  1.010428E-02
   1.36000  9.124906E-03
   1.34000  8.157929E-03
   1.32000  7.242442E-03
   1.30000  6.421751E-03
   1.28000  5.724507E-03
   1.26000  5.153906E-03
   1.24000  4.694276E-03
   1.22000  4.323729E-03
   1.20000  4.022004E-03
   1.18000  3.772948E-03
   1.16000  3.564418E-03
   1.14000  3.387446E-03
   1.12000  3.235400E-03
   1.10000  3.103338E-03
   1.08000  2.987521E-03
   1.06000  2.885087E-03
   1.04000  2.793809E-03
   1.02000  2.711935E-03
   1.00000  2.638065E-03
   0.980000  2.571071E-03
   0.960000  2.510033E-03
   0.940000  2.454190E-03
   0.920000  2.402911E-03
   0.900000  2.355668E-03
   0.880000  2.312014E-03
   0.860000  2.271567E-03
   0.840000  2.234003E-03
   0.820000  2.199039E-03
   0.800000  2.166432E-03
   0.780000  2.135972E-03
   0.760000  2.107471E-03
   0.740000  2.080767E-03
   0.720000  2.055716E-03
   0.700000  2.032191E-03
   0.680000  2.010078E-03
   0.660000  1.989275E-03
   0.640000  1.969693E-03
   0.620000  1.951250E-03
   0.600000  1.933874E-03
   0.580000  1.917497E-03
   0.560000  1.902062E-03
   0.540000  1.887513E-03
   0.520000  1.873802E-03
   0.500000  1.860884E-03
   0.480000  1.848720E-03
   0.460000  1.837272E-03
   0.440000  1.826506E-03
   0.420000  1.816393E-03
   0.400000  1.806904E-03
   0.380000  1.798014E-03
   0.360000  1.789699E-03
   0.340000  1.781938E-03
   0.320000  1.774711E-03
   0.300000  1.768002E-03
   0.280000  1.761793E-03
   0.260000  1.756071E-03
   0.240000  1.750821E-03
   0.220000  1.746033E-03
   0.200000  1.741695E-03
   0.180000  1.737798E-03
   0.160000  1.734333E-03
   0.140000  1.731292E-03
   0.120000  1.728670E-03
   0.100000  1.726461E-03
   8.000004E-02  1.724659E-03
   6.000004E-02  1.723262E-03
   4.000004E-02  1.722266E-03
   2.000004E-02  1.721669E-03
   4.470348E-08  1.721470E-03
